Time (sec)	Fluid Temperature (C)	Flowrate (GPM)	"Pressure Drop (large pipe, (""WC)"	"Pressure Drop (small pipe, (""WC))"	Ambient Temperature (C)	Ambient Pressure (kPa)	Flow Setpoint (GPM)	Control Output (%)
621707.3217	22.606718	10.729236	8.845913	0.28565	20.914024	85.211302	10.8	39.853145
621709.2652	22.615224	10.746813	8.891502	0.290269	20.775488	85.201455	10.8	39.875186
621710.4917	22.71894	10.754918	8.900666	0.278777	20.826862	85.206364	10.8	39.885978
621711.0431	22.616498	10.740577	8.910547	0.288928	20.749071	85.208401	10.8	39.910247
621713.009	22.697697	10.760777	8.951516	0.291964	20.783522	85.202571	10.8	39.92406
621713.6722	22.614854	10.785135	8.930077	0.280975	20.830451	85.198359	10.8	39.904664
621714.2621	22.578239	10.782998	8.919926	0.300421	20.897866	85.201576	10.8	39.908624
621716.5611	22.656276	10.803961	8.91811	0.289096	20.851194	85.203445	10.8	39.90002
621717.0684	22.617443	10.801547	8.903302	0.300905	20.807855	85.208029	10.8	39.901988
621717.5651	22.638524	10.807372	8.920103	0.294535	20.907126	85.205853	10.8	39.895673
621720.615	22.721159	10.79241	8.93804	0.296193	20.831076	85.20112	10.8	39.907114
621721.07	22.660509	10.78205	8.936401	0.297645	20.894532	85.207145	10.8	39.919561
621722.1441	22.63647	10.823038	8.945313	0.288239	20.805887	85.206708	10.8	39.878093
621723.8172	22.594143	10.818461	8.924433	0.296193	20.912566	85.201371	10.8	39.869277
621725.3947	22.591349	10.82836	8.915502	0.298651	20.896268	85.206513	10.8	39.845469
621726.106	22.600595	10.836348	8.904587	0.294889	20.950716	85.208047	10.8	39.829597
621727.89	22.595047	10.851126	8.923483	0.309976	20.858371	85.20337	10.8	39.790494
621729.3191	22.712284	10.881762	8.93193	0.332365	20.939488	85.204421	10.8	39.732641
621730.619	22.688041	10.850598	8.951032	0.327764	20.838739	85.20682	10.8	39.733721
621731.093	22.514212	10.858099	8.949979	0.338642	20.849481	85.207452	10.8	39.717508
621731.7225	22.546226	10.850111	8.984019	0.335848	20.838253	85.204821	10.8	39.725927
621733.111	22.663468	10.875542	8.998082	0.351029	20.802808	85.205537	10.8	39.664048
621736.8692	22.63573	10.848946	9.081147	0.347639	20.806767	85.204021	10.8	39.598581
621737.1541	22.621676	10.849374	9.100388	0.343895	20.797135	85.203705	10.8	39.59343
621739.296	22.665851	10.8337	9.095703	0.35345	20.845175	85.205806	10.8	39.582065
621739.872	22.628333	10.836415	9.087778	0.3525	20.891592	85.204198	10.8	39.571829
621741.944	22.522554	10.829014	9.032075	0.33311	20.852699	85.20867	10.8	39.547765
621742.2061	22.613334	10.818243	9.023684	0.328863	20.852699	85.20867	10.8	39.556416
621743.695	22.682123	10.812435	8.95106	0.334693	20.817509	85.206476	10.8	39.555538
621744.4234	22.549555	10.808588	8.921658	0.330018	20.857653	85.20496	10.8	39.560609
621746.0462	22.722064	10.831428	8.895534	0.334898	20.881961	85.204821	10.8	39.529539
621748.1591	22.725762	10.84178	8.893476	0.338586	20.888397	85.20179	10.8	39.491187
621748.591	22.671029	10.809543	8.892265	0.332738	20.870502	85.198526	10.8	39.519511
621750.5903	22.694697	10.8093	8.918706	0.336966	20.826909	85.192696	10.8	39.51073
621752.576	22.617033	10.808479	8.936559	0.33162	20.937915	85.203445	10.8	39.507295
621753.241	22.608732	10.802921	8.92638	0.332365	20.823575	85.201009	10.8	39.511776
621753.6794	22.643291	10.796073	8.92597	0.335476	20.805308	85.204867	10.8	39.518675
621756.1234	22.499416	10.756201	8.936233	0.335234	20.84631	85.201241	10.8	39.565449
621756.394	22.663632	10.761314	8.936689	0.328994	20.77271	85.199614	10.8	39.574229
621758.685	22.602979	10.736201	8.902314	0.317948	20.904579	85.20284	10.8	39.6405
621759.298	22.631457	10.738196	8.890431	0.314186	20.787528	85.206392	10.8	39.651078
621762.706	22.611855	10.735414	8.833825	0.302228	20.880272	85.207871	10.8	39.715759
621763.5861	22.650154	10.720871	8.848922	0.280155	20.938424	85.211385	10.8	39.751648
621763.9171	22.591883	10.715322	8.824987	0.281738	20.877054	85.211032	10.8	39.766304
621765.572	22.615923	10.713118	8.821066	0.274977	20.886685	85.211432	10.8	39.819247
621768.835	22.581733	10.695415	8.781876	0.243424	20.875341	85.208977	10.8	39.936359
621770.253	22.658085	10.706731	8.786448	0.232527	20.924975	85.20974	10.8	39.970012
621770.905	22.661043	10.693605	8.802123	0.228225	20.841634	85.207908	10.8	40.006202
621772.573	22.626484	10.927108	8.793536	0.20619	20.832373	85.211795	10.8	39.766434
621772.8834	22.734103	10.937577	8.777051	0.206227	20.791881	85.208791	10.8	39.742385
621775.393	22.675302	10.894318	8.926249	0.218613	20.832003	85.20589	10.8	39.676529
621775.6784	22.738705	10.881409	8.927274	0.224183	20.759653	85.207806	10.8	39.680441
621777.063	22.716147	10.842534	9.013682	0.232118	20.880157	85.203352	10.8	39.693911
621779.358	22.613334	10.82888	9.101878	0.235936	20.901154	85.210716	10.8	39.680514
621780.4311	22.572281	10.816098	9.09562	0.232863	20.771137	85.207062	10.8	39.681428
621780.7031	22.730199	10.824563	9.094279	0.236923	20.899673	85.205946	10.8	39.671053
621782.404	22.72946	10.798831	9.10172	0.241319	20.840292	85.206309	10.8	39.686476
621782.822	22.733363	10.798135	9.097939	0.247	20.760139	85.204003	10.8	39.687657
621783.8882	22.740019	10.791271	9.06415	0.247503	20.947708	85.211757	10.8	39.696769
621786.7041	22.65829	10.78635	9.051885	0.237594	20.893376	85.203175	10.8	39.710642
621787.2761	22.71968	10.791388	9.054055	0.237892	20.883375	85.20907	10.8	39.707532
621788.674	22.779588	10.819685	9.029105	0.238171	20.819409	85.204737	10.8	39.677512
621789.329	22.808801	10.810742	9.032793	0.231484	20.893376	85.204821	10.8	39.68146
621790.657	22.645716	10.798982	9.00069	0.235377	20.851635	85.211795	10.8	39.692429
621792.401	22.767385	10.789779	9.011838	0.219284	20.800517	85.208717	10.8	39.703297
621793.497	22.717461	10.801706	8.990445	0.240574	20.885227	85.209916	10.8	39.692862
621793.7551	22.765536	10.803223	9.009835	0.239922	20.740505	85.213347	10.8	39.69122
621794.5001	22.637785	10.802293	9.002804	0.236048	20.79077	85.211971	10.8	39.692727
621797.875	22.631128	10.808328	9.040839	0.2405	20.848186	85.208298	10.8	39.664952
621798.9582	22.728925	10.807012	9.046856	0.233664	20.900043	85.201715	10.8	39.662711
621800.5622	22.72987	10.803181	9.047666	0.233999	20.857701	85.207508	10.8	39.662669
621801.6561	22.674398	10.803584	9.0331	0.229529	20.918933	85.208447	10.8	39.661378
621802.7271	22.755962	10.81852	9.038483	0.243256	20.823738	85.207685	10.8	39.641976
621802.991	22.674028	10.820481	9.033156	0.248937	20.846449	85.20709	10.8	39.638383
621804.487	22.759249	10.823952	9.013747	0.25188	20.823993	85.204244	10.8	39.623125
621807.259	22.692149	10.830548	9.026143	0.273021	20.773985	85.207508	10.8	39.585716
621807.518	22.735787	10.824496	9.023982	0.278702	20.820659	85.206839	10.8	39.589391
621810.415	22.777204	10.813315	9.044648	0.276598	20.828924	85.208122	10.8	39.567619
621810.674	22.661084	10.805713	9.032457	0.281198	20.763242	85.20616	10.8	39.574333
621811.924	22.596567	10.82909	9.046502	0.273729	20.824364	85.204774	10.8	39.549107
621813.712	22.730075	10.800097	9.038083	0.267657	20.838185	85.207015	10.8	39.565354
621815.277	22.696423	10.809618	9.026786	0.260802	20.960787	85.204468	10.8	39.5573
621815.9491	22.691245	10.794456	9.039219	0.254618	20.902891	85.20099	10.8	39.571042
621817.8131	22.605608	10.773476	9.033947	0.262777	20.888445	85.204821	10.8	39.599952
621818.126	22.711215	10.772084	9.031191	0.258437	20.888445	85.204821	10.8	39.604305
621819.285	22.730075	10.771171	8.989719	0.255978	20.813366	85.20496	10.8	39.61724
621821.3481	22.693834	10.76273	8.98197	0.236253	20.899788	85.201604	10.8	39.650416
621821.97	22.691615	10.760618	8.983218	0.240723	20.923378	85.203845	10.8	39.660444
621823.3951	22.763727	10.769612	8.983405	0.248136	20.870666	85.208215	10.8	39.668765
621824.431	22.657221	10.776971	8.964704	0.227256	20.863998	85.206485	10.8	39.668219
621826.195	22.642264	10.785797	9.00204	0.235284	20.818807	85.200293	10.8	39.666964
621827.381	22.609882	10.754583	9.006296	0.229212	20.818923	85.203482	10.8	39.709297
621828.215	22.636511	10.779963	9.006744	0.236048	20.872378	85.198721	10.8	39.692394
621829.0181	22.766151	10.784012	8.998762	0.221575	20.787321	85.201408	10.8	39.692941
621831.607	22.69182	10.824379	8.9737	0.209878	20.885227	85.20867	10.8	39.647278
621831.9631	22.728432	10.823331	8.969584	0.206078	20.851404	85.202552	10.8	39.645743
621833.756	22.729171	10.841981	8.953882	0.197789	20.868929	85.20709	10.8	39.604934
621834.713	22.731925	10.816416	8.938822	0.192052	20.838185	85.204774	10.8	39.620857
621835.4771	22.787599	10.83111	8.936643	0.200229	20.912521	85.203287	10.8	39.600838
621838.041	22.737102	10.826759	8.957411	0.197696	20.915855	85.206429	10.8	39.576802
