Time (sec)	Fluid Temperature (C)	Flowrate (GPM)	"Pressure Drop (large pipe, (""WC)"	"Pressure Drop (small pipe, (""WC))"	Ambient Temperature (C)	Ambient Pressure (kPa)	Flow Setpoint (GPM)	Control Output (%)
621984.1199	22.833824	12.313458	9.807904	0.263596	20.867587	85.201669	12.3	42.506477
621984.756	22.88058	12.311329	9.826726	0.264397	20.779056	85.204821	12.3	42.507809
621985.858	22.890768	12.288019	9.803788	0.265384	20.812881	85.19383	12.3	42.531708
621987.863	22.753006	12.282554	9.779099	0.238451	20.698783	85.203575	12.3	42.55434
621989.376	22.833085	12.270769	9.747424	0.246125	20.752499	85.202589	12.3	42.577141
621989.6341	22.813117	12.270702	9.727084	0.245957	20.752499	85.202589	12.3	42.579364
621991.664	22.897588	12.28532	9.693715	0.240779	20.867447	85.201353	12.3	42.583346
621991.966	22.918664	12.272202	9.708309	0.244281	20.778175	85.20563	12.3	42.598458
621995.0361	22.842329	12.30407	9.710218	0.240295	20.678153	85.205267	12.3	42.591577
621996.102	22.787972	12.307196	9.718516	0.23724	20.85152	85.201566	12.3	42.585868
621996.3957	22.826964	12.309082	9.730623	0.241133	20.911155	85.201938	12.3	42.583002
621997.864	22.969687	12.313332	9.752677	0.248397	20.758542	85.205221	12.3	42.57188
621998.999	22.861682	12.290483	9.809534	0.241114	20.85608	85.197875	12.3	42.591147
622001.897	22.880375	12.294456	9.853837	0.245473	20.736315	85.201892	12.3	42.595725
622002.4081	22.897958	12.291941	9.866298	0.251806	20.801998	85.203166	12.3	42.599043
622004.275	22.829347	12.310683	9.821427	0.238544	20.852746	85.203305	12.3	42.576598
622004.5551	22.834894	12.304925	9.832519	0.243033	20.867308	85.203063	12.3	42.582059
622006.5084	22.823061	12.317766	9.797027	0.23616	20.805332	85.198191	12.3	42.55848
622006.8181	22.941918	12.314396	9.808743	0.251843	20.862377	85.19874	12.3	42.560597
622008.3044	22.818789	12.303207	9.798703	0.246609	20.786926	85.205946	12.3	42.565211
622009.954	22.775729	12.317615	9.818438	0.26667	20.894833	85.203352	12.3	42.537825
622010.254	22.865749	12.30588	9.812514	0.262292	20.871012	85.202636	12.3	42.54851
622012.0632	22.920678	12.310205	9.834596	0.273412	20.844828	85.206253	12.3	42.540022
622012.355	22.805312	12.319518	9.855281	0.26544	20.787297	85.197224	12.3	42.529545
622015.128	22.811228	12.326458	9.856967	0.260281	20.82038	85.199986	12.3	42.494466
622015.402	22.911804	12.326064	9.857227	0.266018	20.819154	85.197689	12.3	42.492483
622017.511	22.869282	12.312133	9.844692	0.271624	20.923724	85.204551	12.3	42.493218
622019.4774	22.71841	12.317028	9.857712	0.292393	20.803086	85.210009	12.3	42.472925
622020.231	22.839661	12.326248	9.861828	0.29731	20.825311	85.199753	12.3	42.458947
622023.126	22.81583	12.29925	9.858829	0.290716	20.843207	85.200599	12.3	42.477516
622024.384	22.968743	12.29138	9.864464	0.287792	20.843092	85.206876	12.3	42.489088
622025.1377	22.921377	12.291346	9.851323	0.289934	20.737147	85.206606	12.3	42.491583
622027.5471	22.940234	12.292947	9.796896	0.266353	20.809869	85.207378	12.3	42.49192
622028.606	22.893276	12.274423	9.775336	0.269985	20.798501	85.206922	12.3	42.518372
622029.2682	22.933579	12.272864	9.752528	0.258604	20.880364	85.20934	12.3	42.526291
622030.8961	22.861477	12.263527	9.709929	0.260504	20.760231	85.213394	12.3	42.551562
622031.215	22.986246	12.269813	9.711606	0.24225	20.710335	85.207555	12.3	42.548842
622033.256	22.911394	12.260719	9.669724	0.239997	20.783684	85.202459	12.3	42.583438
622033.525	22.960939	12.258129	9.674306	0.226716	20.847883	85.203445	12.3	42.589633
622035.531	22.842784	12.27501	9.653296	0.235936	20.724899	85.210363	12.3	42.599398
622036.727	22.91805	12.274716	9.662003	0.242176	20.811582	85.207238	12.3	42.611145
622038.6662	22.957407	12.313776	9.67412	0.224984	20.852699	85.204914	12.3	42.571398
622039.791	22.873845	12.269	9.679708	0.225244	20.80466	85.211255	12.3	42.619872
622040.113	22.865914	12.26123	9.670143	0.223792	20.80466	85.211255	12.3	42.631496
622043.0041	22.90252	12.247199	9.702246	0.224667	20.728349	85.208791	12.3	42.677323
622043.2741	23.013605	12.236713	9.69555	0.226232	20.728349	85.208791	12.3	42.693003
622045.014	22.949273	12.285127	9.714204	0.213286	20.836887	85.20602	12.3	42.670048
622047.207	22.938016	12.309971	9.737282	0.215391	20.844665	85.208401	12.3	42.643894
622047.8044	22.783824	12.294422	9.747359	0.218483	20.73798	85.210902	12.3	42.658511
622049.546	23.060392	12.246553	9.752044	0.206376	20.889971	85.20603	12.3	42.727135
622049.9	22.884772	12.249244	9.743364	0.213398	20.931826	85.20907	12.3	42.730763
622051.6511	23.060187	12.234022	9.748337	0.208071	20.860709	85.209786	12.3	42.785034
622052.884	22.868668	12.237912	9.737487	0.194269	20.864043	85.213217	12.3	42.804649
622054.544	22.904534	12.302	9.718535	0.204271	20.761921	85.209963	12.3	42.761362
622054.815	22.95983	12.2934	9.710563	0.197268	20.828969	85.210009	12.3	42.770154
622057.631	22.918419	12.286736	9.666222	0.205985	20.936757	85.211385	12.3	42.793644
622059.1731	22.857205	12.27382	9.687615	0.216714	20.921941	85.205091	12.3	42.820981
622059.8656	22.879596	12.258548	9.693417	0.219303	20.867492	85.208178	12.3	42.843344
622061.194	23.062241	12.25657	9.746232	0.231149	20.891569	85.20894	12.3	42.866245
622062.017	22.881444	12.247182	9.772049	0.245566	20.775627	85.208494	12.3	42.886838
622063.513	23.013809	12.262688	9.788486	0.227405	20.817856	85.208252	12.3	42.892773
622064.229	22.976098	12.27392	9.797231	0.234334	20.894532	85.209247	12.3	42.889404
622065.799	23.067047	12.297968	9.811453	0.240518	20.889833	85.211655	12.3	42.868242
622066.229	22.803793	12.311153	9.808212	0.240574	20.956133	85.208977	12.3	42.854263
622068.626	22.93173	12.28739	9.826438	0.246516	20.973541	85.205221	12.3	42.877157
622069.179	22.984437	12.303265	9.834158	0.242604	20.848717	85.207768	12.3	42.862706
622070.738	22.971496	12.320985	9.832696	0.245696	20.917126	85.209517	12.3	42.835268
622072.0494	22.997047	12.321756	9.828123	0.247484	20.907612	85.202998	12.3	42.828855
622073.476	23.026584	12.327053	9.828356	0.242288	20.884901	85.19926	12.3	42.811132
622074.0722	22.920843	12.317875	9.828682	0.246833	20.871937	85.201278	12.3	42.81599
622075.7504	22.812133	12.328847	9.84553	0.254637	20.777109	85.200823	12.3	42.78892
622078.5611	22.921212	12.310717	9.88472	0.259499	20.866011	85.208754	12.3	42.783769
622079.629	22.801984	12.300332	9.880687	0.264658	21.052683	85.206206	12.3	42.791874
622080.5202	23.026214	12.320364	9.866159	0.261473	20.841934	85.212548	12.3	42.768943
622081.6234	22.977617	12.312762	9.851537	0.260374	20.868719	85.206104	12.3	42.774771
622083.5107	23.002388	12.302754	9.839057	0.261268	20.870571	85.20629	12.3	42.7757
622084.9092	22.940644	12.30837	9.834382	0.262441	20.804266	85.209386	12.3	42.76657
622085.1741	23.000909	12.315888	9.834727	0.266577	20.904278	85.203528	12.3	42.75804
622086.957	22.993884	12.310935	9.809413	0.262367	20.910945	85.209117	12.3	42.758871
622088.25	22.774989	12.316207	9.801832	0.259499	20.926988	85.214463	12.3	42.753352
622090.11	23.07485	12.327724	9.811397	0.26205	20.865756	85.210586	12.3	42.725979
622090.3911	22.95268	12.326835	9.819444	0.262982	20.865756	85.210586	12.3	42.724121
622092.954	22.854327	12.290718	9.833832	0.260113	20.833646	85.209014	12.3	42.746639
622093.5519	22.905353	12.290349	9.849702	0.274474	20.861311	85.210511	12.3	42.749202
622094.0831	22.930496	12.286216	9.859928	0.262665	20.907728	85.207062	12.3	42.755555
622096.734	22.896109	12.32277	9.916972	0.277659	20.840684	85.205314	12.3	42.718622
622097.1594	23.032744	12.302201	9.91483	0.27846	20.796858	85.202171	12.3	42.737497
622098.8111	23.077643	12.282973	9.89692	0.277641	20.83353	85.19926	12.3	42.765095
622099.2114	22.930496	12.29086	9.895141	0.272071	20.830683	85.201185	12.3	42.759377
622101.122	23.032744	12.273325	9.844487	0.248472	20.875132	85.206336	12.3	42.784746
622102.517	22.948448	12.288966	9.815299	0.255978	20.83353	85.205407	12.3	42.781417
622103.704	23.028143	12.277013	9.790433	0.25121	20.78549	85.206234	12.3	42.803212
622104.425	23.003907	12.288773	9.771201	0.23683	20.796974	85.207313	12.3	42.795466
622106.297	23.037181	12.265379	9.757045	0.232416	20.883281	85.209386	12.3	42.834292
622106.656	23.036276	12.26553	9.760547	0.237482	20.764746	85.210855	12.3	42.838705
622108.887	22.967139	12.267315	9.76701	0.231652	20.891546	85.208345	12.3	42.860544
622109.236	23.119087	12.270249	9.776947	0.22165	20.815866	85.209386	12.3	42.861172
622111.5281	22.929796	12.273241	9.814182	0.233254	20.779309	85.202413	12.3	42.882467
622111.882	23.042602	12.275865	9.815886	0.232472	20.718555	85.20947	12.3	42.88288
622114.367	23.069959	12.288806	9.814405	0.240518	20.869322	85.210363	12.3	42.880129
