Time (sec)	Fluid Temperature (C)	Flowrate (GPM)	"Pressure Drop (large pipe, (""WC)"	"Pressure Drop (small pipe, (""WC))"	Ambient Temperature (C)	Ambient Pressure (kPa)	Flow Setpoint (GPM)	Control Output (%)
623641.9087	23.089415	12.679805	0.015048	35.843136	20.974835	85.187108	12.6	50.566948
623643.108	23.074257	12.647963	0.014889	35.828999	20.908907	85.188363	12.6	50.570694
623644.286	23.107702	12.652774	0.00172	35.792901	20.883466	85.181752	12.6	50.548843
623645.279	23.065927	12.645582	-0.018061	35.801674	20.862236	85.18535	12.6	50.537745
623645.833	23.108615	12.63233	-0.022392	35.797129	20.844944	85.186429	12.6	50.544083
623648.364	23.096415	12.670435	-0.039798	35.768351	20.905456	85.179966	12.6	50.46466
623648.797	23.065731	12.663117	-0.0357	35.767531	20.855568	85.189692	12.6	50.462417
623649.8617	23.018039	12.696519	-0.047351	35.746372	20.849642	85.187154	12.6	50.401408
623651.506	23.071646	12.670929	-0.056944	35.733557	20.824083	85.182384	12.6	50.373948
623653.388	22.982916	12.620856	-0.050965	35.716886	20.869274	85.188093	12.6	50.401489
623653.6621	23.115442	12.618995	-0.051859	35.681757	20.841746	85.185982	12.6	50.401447
623655.9234	23.075886	12.654182	-0.090797	35.63154	20.810884	85.186531	12.6	50.337809
623656.196	23.148713	12.654526	-0.099943	35.63167	20.877423	85.190613	12.6	50.331071
623657.7574	23.09511	12.635021	-0.121401	35.642604	20.944094	85.185955	12.6	50.324554
623659.7108	23.080126	12.631517	-0.142393	35.660653	20.831491	85.184225	12.6	50.301549
623660.2621	23.146864	12.656076	-0.131775	35.65594	20.855822	85.181928	12.6	50.269772
623661.691	23.122813	12.657493	-0.134812	35.636997	20.820749	85.172333	12.6	50.240417
623663.687	23.167173	12.64813	-0.119761	35.627367	20.808408	85.174806	12.6	50.209469
623664.206	23.105068	12.65264	-0.111761	35.650185	20.894091	85.17872	12.6	50.196282
623667.4623	23.249604	12.651181	-0.062196	35.650855	20.744068	85.17912	12.6	50.138073
623668.318	23.192853	12.656881	-0.034471	35.64143	20.868903	85.181175	12.6	50.116879
623669.253	23.167173	12.675514	-0.03313	35.635861	20.894091	85.182905	12.6	50.075504
623670.886	23.15256	12.679269	-0.013954	35.592666	20.793708	85.185025	12.6	50.030738
623671.453	23.205594	12.69268	-0.016897	35.581472	20.844456	85.184086	12.6	50.001436
623673.075	23.349944	12.688539	-0.016645	35.560927	20.865569	85.18602	12.6	49.954563
623674.841	23.29672	12.682387	-0.004613	35.543325	20.964952	85.189293	12.6	49.913851
623675.606	23.166434	12.675288	-0.00316	35.566589	20.881867	85.187638	12.6	49.901315
623676.8401	23.32905	12.664131	-0.001968	35.545001	20.940878	85.184253	12.6	49.8848
623678.1321	23.208182	12.656646	-0.018806	35.502551	20.848277	85.183602	12.6	49.866129
623679.6612	23.302981	12.658222	-0.032189	35.556754	20.873095	85.185006	12.6	49.833981
623680.115	23.288023	12.65782	-0.02635	35.549024	20.802833	85.186261	12.6	49.825487
623682.039	23.320722	12.65668	-0.025307	35.525853	20.917173	85.176944	12.6	49.792011
623684.712	23.333855	12.663603	-0.03204	35.472712	20.94581	85.17965	12.6	49.753055
623684.9893	23.359357	12.6587	-0.036799	35.538612	20.892726	85.17992	12.6	49.751788
623686.6211	23.280434	12.645884	-0.038625	35.526226	20.892473	85.186038	12.6	49.734144
623688.392	23.248103	12.621694	-0.030233	35.507525	20.825429	85.181166	12.6	49.727901
623690.1451	23.142186	12.669823	-0.010256	35.494058	20.816168	85.182961	12.6	49.665258
623691.098	23.374858	12.650662	-0.003085	35.548205	20.931735	85.183844	12.6	49.661873
623691.716	23.173608	12.645901	0.007215	35.52874	20.92692	85.180543	12.6	49.657227
623693.5499	23.214096	12.662857	0.02248	35.518663	20.964817	85.185118	12.6	49.607591
623695.3281	23.285066	12.632791	0.037148	35.526095	20.814063	85.182068	12.6	49.602403
623696.114	23.209487	12.628751	0.046442	35.475897	20.932964	85.19092	12.6	49.598668
623697.3561	23.181763	12.620009	0.038414	35.513783	20.759238	85.18323	12.6	49.596229
623698.318	23.291327	12.659446	0.031159	35.475487	20.918518	85.178274	12.6	49.54333
623698.9197	23.408143	12.662304	0.019257	35.499106	20.870366	85.184467	12.6	49.527118
623700.517	23.195071	12.683963	0.001581	35.513373	20.819619	85.184392	12.6	49.458482
623700.799	23.137577	12.680116	0.000258	35.473084	20.833695	85.18032	12.6	49.454793
623702.758	23.245885	12.630428	-0.008981	35.441736	20.908518	85.176275	12.6	49.46567
623703.0252	23.116135	12.615474	-0.009632	35.475487	20.908518	85.176275	12.6	49.478253
623704.902	23.173434	12.575526	-0.024906	35.429052	20.940859	85.182654	12.6	49.517637
623706.499	23.126117	12.51987	-0.041018	35.377475	20.878633	85.177363	12.6	49.600922
623707.288	23.193592	12.495487	-0.042694	35.3473	20.966669	85.186075	12.6	49.649587
623708.214	23.272325	12.465346	-0.056282	35.377344	20.868261	85.182877	12.6	49.716232
623710.945	23.206703	12.428784	-0.089438	35.357992	20.927896	85.179427	12.6	49.887652
623712.0012	23.133707	12.453318	-0.093126	35.361084	20.865298	85.181566	12.6	49.920618
623712.2721	23.264367	12.491364	-0.097996	35.406663	20.865298	85.181566	12.6	49.893641
623714.1103	23.163823	12.552283	-0.148521	35.434137	20.836288	85.177623	12.6	49.865748
623714.8571	23.158844	12.536718	-0.15815	35.444921	20.883077	85.177744	12.6	49.895245
623716.704	23.140361	12.543591	-0.163301	35.426574	20.976533	85.174936	12.6	49.928728
623717.464	23.225185	12.585165	-0.163003	35.417224	20.886041	85.176796	12.6	49.894942
623719.192	23.222424	12.584025	-0.167911	35.471632	20.79874	85.175652	12.6	49.901652
623719.6351	23.165128	12.593572	-0.161019	35.433038	20.995793	85.179753	12.6	49.89374
623721.4471	23.069012	12.634753	-0.120581	35.472842	20.921716	85.178897	12.6	49.847969
623723.3161	23.32555	12.661826	-0.074145	35.51017	20.825528	85.182282	12.6	49.781863
623724.088	23.16678	12.648818	-0.056571	35.527325	20.942576	85.179966	12.6	49.77938
623725.2583	23.125747	12.645934	-0.033735	35.549472	21.024681	85.180999	12.6	49.764061
623727.072	23.186568	12.688984	-0.000804	35.544275	20.910352	85.174536	12.6	49.678728
623727.3271	23.207812	12.68657	0.004775	35.550198	20.910352	85.174536	12.6	49.673717
623729.086	23.166041	12.656445	0.007429	35.520973	20.905419	85.181343	12.6	49.655966
623730.718	23.19231	12.714322	0.004142	35.504917	20.841456	85.185852	12.6	49.554665
623731.0011	23.143514	12.698623	0.002801	35.561877	20.934427	85.187424	12.6	49.560255
623733.477	23.183981	12.688749	-0.010284	35.520321	20.833677	85.181436	12.6	49.502611
623735.215	23.168086	12.663628	-0.028343	35.457066	20.873429	85.174415	12.6	49.478969
623736.19	23.09913	12.612138	-0.050946	35.425811	20.922204	85.175113	12.6	49.519871
623737.3391	23.224076	12.554027	-0.079752	35.415436	20.88146	85.178739	12.6	49.583409
623737.632	23.122247	12.539065	-0.088953	35.424022	20.88146	85.178739	12.6	49.603247
623740.011	23.058094	12.4545	-0.102113	35.363766	21.018249	85.175122	12.6	49.774914
623740.312	23.031106	12.44533	-0.099188	35.312673	20.978132	85.180013	12.6	49.799551
623742.122	23.100979	12.472823	-0.091943	35.32601	20.883312	85.175475	12.6	49.869699
623744.0841	23.130923	12.53044	-0.1008	35.374998	20.997509	85.177623	12.6	49.86269
623745.6611	23.163996	12.577932	-0.099012	35.44358	20.970101	85.1766	12.6	49.84657
623746.1031	23.246798	12.606791	-0.098192	35.445275	20.907388	85.176833	12.6	49.818901
623748.174	23.199484	12.620772	-0.076948	35.441867	20.837128	85.174192	12.6	49.802704
623748.454	23.20355	12.651911	-0.076688	35.481708	20.911951	85.175392	12.6	49.76838
623749.8581	23.158625	12.635205	-0.06418	35.479101	20.966398	85.179065	12.6	49.761984
623751.747	23.310916	12.656764	0.000547	35.531218	20.895653	85.182551	12.6	49.722049
623753.014	23.211855	12.678272	0.04268	35.549639	20.968367	85.182644	12.6	49.669912
623753.6661	23.204462	12.668306	0.056119	35.514789	21.035656	85.175847	12.6	49.665075
623755.8401	23.044023	12.670669	0.106829	35.552396	20.926766	85.178581	12.6	49.604572
623756.1826	23.187632	12.670627	0.109595	35.524382	20.960472	85.176284	12.6	49.596652
623759.141	23.136988	12.702722	0.127309	35.472116	20.94899	85.181612	12.6	49.468434
623760.575	23.178021	12.612516	0.118294	35.472805	20.960472	85.181436	12.6	49.533346
623760.908	23.095388	12.601912	0.103393	35.465243	20.981213	85.182012	12.6	49.54283
623762.5402	23.129768	12.538705	0.040882	35.430244	20.89232	85.176554	12.6	49.624123
623763.8861	23.050655	12.508127	-0.019104	35.376655	20.874052	85.179576	12.6	49.692402
623764.3802	23.260625	12.504464	-0.037861	35.398895	20.924914	85.176786	12.6	49.71144
623764.986	23.158603	12.495362	-0.068771	35.399547	20.944175	85.174536	12.6	49.740306
623767.444	23.117547	12.461373	-0.161438	35.391854	20.94899	85.185564	12.6	49.886242
623768.1845	23.168561	12.497248	-0.18745	35.367845	20.995657	85.183993	12.6	49.880685
623770.032	23.098889	12.542384	-0.228093	35.438011	20.931464	85.182682	12.6	49.875499
