Time (sec)	Fluid Temperature (C)	Flowrate (GPM)	"Pressure Drop (large pipe, (""WC)"	"Pressure Drop (small pipe, (""WC))"	Ambient Temperature (C)	Ambient Pressure (kPa)	Flow Setpoint (GPM)	Control Output (%)
620753.4438	22.312343	10.408276	0.023318	32.802834	20.752608	85.211571	10.4	42.681177
620754.206	22.23765	10.403038	0.021837	32.761837	20.626279	85.210763	10.4	42.683451
620755.862	22.255574	10.422232	0.01597	32.82811	20.660733	85.209563	10.4	42.660858
620756.286	22.245789	10.432466	0.009739	32.847816	20.672589	85.210009	10.4	42.646398
620758.882	22.206572	10.431502	-0.022652	32.826936	20.801876	85.206959	10.4	42.614712
620759.328	22.249489	10.425954	-0.03015	32.866089	20.828664	85.21238	10.4	42.616501
620760.4521	22.292774	10.433162	-0.046923	32.802293	20.726306	85.214733	10.4	42.597583
620762.7932	22.287224	10.428351	-0.061051	32.798717	20.809538	85.213887	10.4	42.576068
620763.469	22.348265	10.421654	-0.0555	32.807993	20.644803	85.214686	10.4	42.577177
620765.322	22.206776	10.437303	-0.04194	32.799201	20.825583	85.215895	10.4	42.544286
620765.6964	22.377323	10.434143	-0.035551	32.793334	20.726306	85.218341	10.4	42.542869
620767.556	22.251173	10.404161	0.016025	32.751089	20.744458	85.214156	10.4	42.562547
620769.5744	22.318134	10.432835	0.035444	32.770647	20.712599	85.209507	10.4	42.522037
620770.4662	22.327753	10.44343	0.040342	32.733916	20.68692	85.213487	10.4	42.501299
620772.5801	22.248953	10.444201	0.053493	32.779513	20.659875	85.210902	10.4	42.46982
620772.853	22.307406	10.436045	0.065311	32.751127	20.782243	85.212455	10.4	42.474228
620774.239	22.284138	10.446288	0.07211	32.749785	20.707666	85.215709	10.4	42.4433
620776.1531	22.303541	10.453471	0.067472	32.720616	20.812619	85.220879	10.4	42.399779
620776.4743	22.257871	10.459867	0.068617	32.763979	20.750268	85.21451	10.4	42.387206
620779.1831	22.400297	10.436716	0.089907	32.695005	20.682357	85.212148	10.4	42.361693
620779.4541	22.324423	10.423087	0.087914	32.686921	20.653831	85.215216	10.4	42.372374
620781.6633	22.258611	10.423087	0.041506	32.612788	20.895104	85.211209	10.4	42.363489
620784.0341	22.338724	10.415124	-0.05279	32.621319	20.764969	85.212334	10.4	42.355065
620784.3151	22.279903	10.404521	-0.054234	32.620127	20.745706	85.210409	10.4	42.364807
620786.549	22.231973	10.378705	-0.07937	32.59567	20.744224	85.208754	10.4	42.393089
620787.3161	22.322446	10.377984	-0.070811	32.624821	20.77423	85.212325	10.4	42.399836
620788.929	22.246441	10.370507	-0.039705	32.572611	20.841531	85.216118	10.4	42.419253
620789.517	22.244961	10.368496	-0.029889	32.612192	20.770779	85.213096	10.4	42.428097
620791.644	22.301564	10.37723	-0.061796	32.584774	20.769668	85.209117	10.4	42.434831
620791.9171	22.305059	10.375511	-0.064087	32.580397	20.791894	85.207601	10.4	42.438582
620793.925	22.33005	10.389987	-0.106956	32.633203	20.857829	85.213087	10.4	42.433627
620795.688	22.362438	10.387841	-0.113726	32.605281	20.747441	85.211432	10.4	42.443729
620795.959	22.375551	10.383399	-0.119584	32.617631	20.771149	85.217243	10.4	42.449817
620797.681	22.365768	10.399257	-0.106853	32.643671	20.895981	85.210047	10.4	42.438605
620799.044	22.338023	10.426054	-0.077014	32.651531	20.815972	85.207508	10.4	42.405032
620799.428	22.339502	10.419424	-0.075701	32.651233	20.915866	85.213347	10.4	42.408458
620801.788	22.262553	10.425199	-0.032375	32.646371	20.793629	85.215895	10.4	42.385344
620802.5191	22.283476	10.425157	-0.025148	32.653878	20.69275	85.215003	10.4	42.37882
620803.9431	22.222432	10.442323	-0.023425	32.676956	20.814861	85.219494	10.4	42.349154
620805.466	22.296794	10.428125	-0.049968	32.619791	20.817707	85.215579	10.4	42.348508
620805.857	22.282736	10.439658	-0.059803	32.619214	20.790919	85.215579	10.4	42.332703
620807.953	22.173594	10.46213	-0.108669	32.696514	20.726208	85.219029	10.4	42.272199
620808.5931	22.225021	10.471015	-0.101023	32.686921	20.827221	85.213264	10.4	42.249394
620810.44	22.260499	10.458526	-0.05387	32.721715	20.848959	85.211655	10.4	42.225814
620811.0951	22.224817	10.461518	-0.049586	32.716127	20.783881	85.214417	10.4	42.209855
620813.59	22.386522	10.444168	0.002642	32.680756	20.812287	85.20987	10.4	42.186374
620814.5021	22.249809	10.452759	0.016119	32.647098	20.764872	85.211655	10.4	42.162884
620816.4592	22.207672	10.484174	0.03699	32.630073	20.85278	85.215281	10.4	42.082667
620817.776	22.243189	10.457654	0.049581	32.667382	20.827104	85.21464	10.4	42.076985
620818.9043	22.261892	10.421117	0.072734	32.650525	20.774503	85.215123	10.4	42.097321
620819.507	22.161219	10.415954	0.078545	32.649575	20.880074	85.2153	10.4	42.098225
620820.962	22.238175	10.4382	0.081227	32.587773	20.787839	85.216472	10.4	42.06532
620821.431	22.254288	10.439331	0.085241	32.633109	20.734125	85.214156	10.4	42.058113
620822.826	22.256138	10.495423	0.060133	32.614427	20.779319	85.21397	10.4	41.970776
620824.073	22.221896	10.477972	0.026205	32.596769	20.750678	85.212817	10.4	41.954266
620826.374	22.152914	10.419919	0.00498	32.586003	20.825623	85.209647	10.4	41.964744
620827.0638	22.256878	10.387875	0.001655	32.526808	20.77464	85.209833	10.4	41.995694
620828.336	22.198218	10.398344	-0.005898	32.535972	20.775011	85.214073	10.4	41.986924
620828.846	22.23653	10.388847	-0.007584	32.502314	20.866135	85.214603	10.4	41.997282
620830.7571	22.22765	10.381152	-0.029004	32.473592	20.761558	85.209963	10.4	42.023708
620831.8241	22.37045	10.356191	-0.031574	32.5017	20.682027	85.208624	10.4	42.057572
620832.2061	22.139759	10.344574	-0.031072	32.451166	20.822426	85.21331	10.4	42.077996
620833.8761	22.168454	10.351497	-0.026396	32.483744	20.841317	85.211432	10.4	42.098355
620834.2401	22.302178	10.363274	-0.023379	32.474077	20.799967	85.209117	10.4	42.091904
620836.3832	22.186748	10.358043	-0.033828	32.492182	20.828723	85.215402	10.4	42.120952
620837.1234	22.114229	10.356996	-0.036026	32.509113	20.747111	85.215477	10.4	42.13273
620837.491	22.184158	10.372905	-0.031276	32.479292	20.812678	85.212734	10.4	42.12136
620839.511	22.245944	10.359938	-0.052157	32.529546	20.804529	85.2161	10.4	42.146528
620839.8411	22.23246	10.364338	-0.051421	32.532154	20.749958	85.207806	10.4	42.14653
620841.937	22.175279	10.357943	-0.03923	32.530683	20.833422	85.20961	10.4	42.176879
620843.2521	22.22765	10.372611	-0.031034	32.552177	20.754033	85.2092	10.4	42.178879
620844.3261	22.206562	10.394974	-0.016729	32.523847	20.816266	85.211032	10.4	42.160161
620844.6763	22.208782	10.405183	-0.009213	32.574548	20.816266	85.211032	10.4	42.150273
620846.622	22.223211	10.374656	0.006219	32.564359	20.805153	85.20563	10.4	42.195449
620848.893	22.253713	10.379216	0.022135	32.524443	20.763294	85.209424	10.4	42.209085
620849.177	22.202862	10.392334	0.011816	32.577509	20.799967	85.217597	10.4	42.197131
620852.7481	22.171043	10.412635	-0.060147	32.575107	20.758595	85.210716	10.4	42.168319
620853.0641	22.156984	10.416851	-0.059123	32.594497	20.688345	85.205044	10.4	42.162478
620855.284	22.302548	10.394924	-0.056105	32.600904	20.806518	85.213589	10.4	42.185397
620855.569	22.233735	10.408326	-0.058033	32.548285	20.806518	85.213589	10.4	42.172033
620857.701	22.099633	10.418276	-0.061489	32.603158	20.812562	85.212194	10.4	42.15391
620858.1381	22.203067	10.415568	-0.061218	32.596285	20.670679	85.211525	10.4	42.154371
620861.8801	22.192337	10.425576	-0.010312	32.580005	20.751947	85.214389	10.4	42.120884
620862.145	22.257082	10.425275	-0.018992	32.605766	20.79985	85.217271	10.4	42.118881
620864.8933	22.2778	10.405611	0.027192	32.592783	20.704275	85.211348	10.4	42.129075
620865.3582	22.289434	10.420237	0.023448	32.547428	20.606723	85.20934	10.4	42.111794
620867.1756	22.244669	10.395829	0.024249	32.541821	20.848376	85.208531	10.4	42.135651
620867.501	22.261113	10.385972	0.025748	32.580285	20.768247	85.211404	10.4	42.146702
620869.411	22.22765	10.378336	0.013855	32.551004	20.734282	85.208977	10.4	42.159707
620869.9702	22.205452	10.398419	0.010326	32.552382	20.677231	85.209117	10.4	42.141964
620871.4111	22.292024	10.397103	0.000575	32.559982	20.739215	85.214156	10.4	42.144453
620871.857	22.266497	10.412794	-0.000357	32.513379	20.742686	85.211432	10.4	42.127753
620874.088	22.254658	10.373852	-0.001502	32.531018	20.82578	85.213896	10.4	42.17561
620874.492	22.296093	10.364791	0.000174	32.547074	20.725021	85.217587	10.4	42.188454
620876.156	22.241544	10.354674	0.01827	32.535525	20.774661	85.215523	10.4	42.218893
620877.5581	22.221566	10.352956	0.015904	32.509467	20.7654	85.213673	10.4	42.238456
620878.7211	22.203972	10.360374	0.026819	32.551321	20.662783	85.21438	10.4	42.249163
620879.318	22.133879	10.379191	0.01623	32.547279	20.789108	85.214026	10.4	42.236838
620880.527	22.210836	10.397011	0.001795	32.530049	20.705387	85.211655	10.4	42.222208
620881.6103	22.301477	10.36283	-0.010331	32.557374	20.768109	85.212734	10.4	42.264162
