Time (sec)	Fluid Temperature (C)	Flowrate (GPM)	"Pressure Drop (large pipe, (""WC)"	"Pressure Drop (small pipe, (""WC))"	Ambient Temperature (C)	Ambient Pressure (kPa)	Flow Setpoint (GPM)	Control Output (%)
1055091.824	21.660454	4.047518	4.401782	0.218707	21.228652	86.133714	4	20.072548
1055093.74	21.494983	4.056571	4.403291	0.238544	21.17681	86.125411	4	20.029374
1055094.389	21.547001	4.046387	4.403654	0.255885	21.264064	86.125309	4	20.027442
1055096.714	21.588091	4.060912	4.396175	0.272854	20.993726	86.127373	4	19.983761
1055097.577	21.577166	4.062497	4.40791	0.293697	21.079044	86.125634	4	19.965293
1055097.939	21.560328	4.073242	4.418369	0.300924	21.089179	86.133807	4	19.946568
1055098.779	21.525339	4.091347	4.426751	0.311895	21.092376	86.130506	4	19.905937
1055099.813	21.577906	4.09537	4.441493	0.312547	21.151024	86.124816	4	19.86772
1055102.656	21.693027	4.154404	4.409819	0.362447	21.106585	86.127373	4	19.698682
1055103.041	21.510721	4.162099	4.399761	0.362205	21.019787	86.130218	4	19.670982
1055104.959	21.669338	4.112989	4.377791	0.349967	21.206805	86.128991	4	19.624052
1055105.641	21.729121	4.102059	4.361241	0.342163	21.076451	86.12582	4	19.610786
1055107.752	21.65102	4.06362	4.328906	0.321655	21.097833	86.126926	4	19.587698
1055108.614	21.709134	4.006497	4.323458	0.316179	21.037701	86.130739	4	19.636208
1055108.958	21.659534	4.015633	4.31257	0.312416	21.210644	86.13033	4	19.625553
1055111.993	21.737264	3.973112	4.236723	0.250819	21.11672	86.126936	4	19.665515
1055112.309	21.665266	3.971788	4.234963	0.253538	21.051774	86.127205	4	19.669875
1055116.113	21.659904	3.946064	4.212993	0.222059	21.048207	86.125959	4	19.719539
1055116.386	21.575315	3.936726	4.218768	0.220383	21.08992	86.124416	4	19.734328
1055118.278	21.657503	3.929375	4.200085	0.194418	21.161763	86.124648	4	19.784113
1055119.277	21.644177	3.919024	4.185408	0.200043	21.009924	86.123161	4	19.821971
1055120.417	21.570703	3.908932	4.184057	0.223959	21.020196	86.129614	4	19.859493
1055120.709	21.670458	3.927355	4.180574	0.220942	21.020196	86.129614	4	19.848903
1055123.077	21.638995	3.925327	4.191927	0.251973	21.089959	86.126266	4	19.92251
1055123.341	21.570883	3.939174	4.206018	0.247168	21.120424	86.12397	4	19.914671
1055126.419	21.69859	4.031308	4.26674	0.304724	21.106858	86.124555	4	19.837922
1055126.907	21.633072	4.024141	4.264579	0.308561	21.05575	86.130441	4	19.841279
1055130.069	21.695628	4.088003	4.300016	0.331136	21.199808	86.133184	4	19.723372
1055131.067	21.735053	4.073896	4.303285	0.359895	20.991074	86.129019	4	19.711576
1055131.368	21.770585	4.066495	4.311881	0.369115	21.086859	86.127057	4	19.712152
1055132.828	21.676201	4.052983	4.29467	0.348384	21.127226	86.125085	4	19.699306
1055135.436	21.722469	4.006497	4.302233	0.360007	21.031444	86.127094	4	19.718952
1055136.53	21.645668	3.995349	4.286456	0.353488	20.987604	86.126434	4	19.727854
1055136.973	21.668988	3.994645	4.27257	0.35332	21.146989	86.125978	4	19.729389
1055138.466	21.636224	4.008056	4.234619	0.32633	20.923294	86.132998	4	19.716622
1055138.776	21.701001	3.988157	4.239108	0.312826	21.028481	86.132915	4	19.736854
1055140.817	21.611423	3.973724	4.226041	0.310647	21.033295	86.130804	4	19.775204
1055142.3	21.548492	3.95028	4.180537	0.273561	21.135139	86.123849	4	19.817905
1055143.801	21.739315	3.923424	4.144523	0.241598	21.053294	86.131687	4	19.87975
1055144.827	21.656583	3.95199	4.127051	0.242288	21.101205	86.12754	4	19.875482
1055145.333	21.679532	3.941177	4.129547	0.23113	20.962185	86.128293	4	19.894673
1055147.301	21.533874	3.918034	4.107428	0.221314	21.003433	86.131315	4	19.956284
1055147.756	21.557567	3.912368	4.116769	0.209431	21.006766	86.123263	4	19.97461
1055149.412	21.470569	3.925855	4.145528	0.223196	21.002692	86.125141	4	20.009135
1055149.704	21.640116	3.91842	4.148369	0.218055	21.064405	86.126601	4	20.024183
1055151.988	21.728211	3.938361	4.196397	0.222339	21.089491	86.126294	4	20.055474
1055152.55	21.556266	3.940012	4.202088	0.21487	21.005655	86.132645	4	20.06685
1055154.454	21.732653	3.893769	4.208523	0.204737	21.125647	86.136057	4	20.163162
1055155.537	21.668428	3.925352	4.215005	0.217887	21.050468	86.12966	4	20.168095
1055157.044	21.573115	3.951545	4.189654	0.222655	21.128103	86.12675	4	20.174056
1055158.404	21.523139	3.953297	4.188202	0.22245	21.134165	86.129679	4	20.193333
1055158.659	21.640296	3.948553	4.178395	0.239177	21.030742	86.125364	4	20.201984
1055162.055	21.661775	3.915009	4.181887	0.249254	21.156014	86.128898	4	20.325521
1055163.269	21.498885	3.957144	4.187196	0.244989	21.210215	86.126406	4	20.306886
1055163.536	21.566821	3.966784	4.196006	0.244728	21.145781	86.127196	4	20.300681
1055166.266	21.681943	3.997654	4.204798	0.252849	21.037272	86.123486	4	20.289029
1055166.533	21.714886	4.006271	4.221757	0.263745	21.129994	86.136048	4	20.280443
1055167.419	21.535725	4.019028	4.220444	0.279969	21.136289	86.127689	4	20.26487
1055170.568	21.723399	4.062237	4.24098	0.301855	21.126291	86.132106	4	20.181789
1055171.9	21.722289	4.068464	4.253199	0.325045	21.205031	86.125309	4	20.149374
1055172.472	21.539057	4.072966	4.260565	0.317781	21.092824	86.132961	4	20.132803
1055174.486	21.829623	4.034895	4.283522	0.3346	21.172074	86.125504	4	20.131428
1055174.757	21.678982	4.02798	4.297259	0.33948	21.172074	86.125504	4	20.135546
1055179.123	21.630121	4.012046	4.293739	0.344975	21.079999	86.130664	4	20.113811
1055180.379	21.50722	4.017385	4.268295	0.342479	21.190959	86.131799	4	20.105383
1055180.812	21.643817	4.014678	4.264272	0.333837	21.211326	86.130097	4	20.106097
1055183.252	21.575526	4.028114	4.223638	0.343653	21.231829	86.129465	4	20.069055
1055183.544	21.618466	4.022649	4.233631	0.340896	21.171333	86.118577	4	20.072166
1055185.227	21.588662	3.991594	4.222269	0.34505	21.150595	86.123793	4	20.097639
1055185.703	21.597546	3.985282	4.217175	0.338419	21.304268	86.125262	4	20.105858
1055188.029	21.513704	3.969424	4.197794	0.349632	21.122958	86.126982	4	20.134902
1055188.301	21.721739	3.970656	4.196928	0.349855	21.182579	86.126982	4	20.136348
1055189.108	21.595146	3.957253	4.199657	0.36092	21.231829	86.125532	4	20.160185
1055192.697	21.64845	3.896778	4.192262	0.34518	21.265155	86.117451	4	20.336698
1055193.569	21.617726	3.900265	4.199377	0.33121	21.182442	86.127373	4	20.362531
1055194.067	21.681943	3.903953	4.188174	0.326293	21.254417	86.127252	4	20.375098
1055195.788	21.696749	3.915352	4.173179	0.323741	21.140597	86.130525	4	20.418419
1055198.308	21.616795	3.908638	4.12435	0.291629	21.123562	86.126573	4	20.506186
1055198.891	21.619757	3.920423	4.103116	0.28416	21.134165	86.12648	4	20.510688
1055200.628	21.72562	3.930063	4.06522	0.271289	21.292926	86.127029	4	20.543606
1055200.897	21.680653	3.929484	4.056792	0.264882	21.217758	86.131538	4	20.550499
1055202.58	21.596806	3.904104	4.053421	0.230795	21.190726	86.124593	4	20.629483
1055203.997	21.652151	3.912452	4.044759	0.216211	21.13319	86.128572	4	20.663826
1055204.259	21.764113	3.919686	4.03037	0.226772	21.189108	86.127252	4	20.663634
1055206.715	21.593845	3.931337	4.056261	0.227424	21.085554	86.127522	4	20.713146
1055207.163	21.637895	3.921379	4.072615	0.219992	21.11481	86.126034	4	20.734209
1055208.975	21.511292	3.923608	4.115251	0.222003	21.194292	86.128991	4	20.777015
1055210.072	21.713406	3.931546	4.125775	0.220104	21.146658	86.122435	4	20.795731
1055210.472	21.665657	3.929635	4.130143	0.212299	21.277238	86.125866	4	20.806873
1055212.842	21.72506	3.928093	4.156304	0.220178	21.22799	86.129019	4	20.858409
1055213.198	21.629751	3.927045	4.165803	0.216993	21.22799	86.129019	4	20.867895
1055215.294	21.467417	3.895973	4.154292	0.204625	21.244789	86.128405	4	20.962292
1055215.629	21.576626	3.917112	4.154106	0.205389	21.166889	86.129	4	20.951787
1055217.784	21.554785	3.916584	4.15907	0.216546	21.250948	86.128489	4	21.003773
1055218.663	21.444463	3.915185	4.143004	0.222804	21.179987	86.127856	4	21.029625
1055219.856	21.611423	3.907842	4.129482	0.228225	21.200354	86.127698	4	21.075317
1055220.197	21.508881	3.887298	4.139801	0.238153	21.152817	86.125755	4	21.107511
1055223.212	21.569773	3.979583	4.187168	0.269929	21.093194	86.129883	4	21.071681
1055224.348	21.522388	4.017461	4.213608	0.275853	21.265389	86.131734	4	21.033028
1055224.69	21.591433	4.024527	4.209268	0.279149	21.252799	86.125532	4	21.023541
